# from http://www.stsci.edu/jwst/instruments/nircam/instrumentdesign/filters
# Retrieved March, 2023, dated Nov, 2022 (post-flight)
# Uses modA or modB  filters+DBS+QE+OTE (nrc_plus_ote)
# Units of transmission are PCE (photon to electron conversion efficiency)
# 
44969.0  0.000000e+00
44982.5  0.000000e+00
44996.0  1.582977e-04
45009.5  1.677846e-04
45023.0  1.687720e-04
45036.5  1.741643e-04
45050.1  1.829648e-04
45063.6  1.943466e-04
45077.1  1.969218e-04
45090.6  2.040945e-04
45104.1  2.171903e-04
45117.6  2.311178e-04
45131.1  2.394454e-04
45144.6  2.480478e-04
45158.2  2.675142e-04
45171.7  2.839592e-04
45185.2  2.955030e-04
45198.7  3.007386e-04
45212.2  3.196151e-04
45225.7  3.424521e-04
45239.2  3.623428e-04
45252.7  3.782682e-04
45266.3  4.012284e-04
45279.8  4.343924e-04
45293.3  4.584318e-04
45306.8  4.836676e-04
45320.3  5.120413e-04
45333.8  5.568776e-04
45347.3  5.956837e-04
45360.8  6.294210e-04
45374.4  6.641649e-04
45387.9  7.117259e-04
45401.4  7.664137e-04
45414.9  8.135763e-04
45428.4  8.662787e-04
45441.9  9.266445e-04
45455.4  9.990255e-04
45468.9  1.064281e-03
45482.5  1.131773e-03
45496.0  1.208369e-03
45509.5  1.293171e-03
45523.0  1.378960e-03
45536.5  1.458625e-03
45550.0  1.554773e-03
45563.5  1.659875e-03
45577.0  1.772458e-03
45590.5  1.876433e-03
45604.1  1.991663e-03
45617.6  2.124777e-03
45631.1  2.264462e-03
45644.6  2.406000e-03
45658.1  2.547447e-03
45671.6  2.716826e-03
45685.1  2.893568e-03
45698.6  3.076024e-03
45712.2  3.255478e-03
45725.7  3.458016e-03
45739.2  3.687681e-03
45752.7  3.921956e-03
45766.2  4.163944e-03
45779.7  4.414139e-03
45793.2  4.704928e-03
45806.7  5.008804e-03
45820.3  5.326370e-03
45833.8  5.659899e-03
45847.3  6.027647e-03
45860.8  6.432445e-03
45874.3  6.845743e-03
45887.8  7.285907e-03
45901.3  7.755334e-03
45914.8  8.279679e-03
45928.4  8.828219e-03
45941.9  9.401449e-03
45955.4  1.002236e-02
45968.9  1.069816e-02
45982.4  1.143459e-02
45995.9  1.219763e-02
46009.4  1.301770e-02
46022.9  1.390071e-02
46036.5  1.486666e-02
46050.0  1.588981e-02
46063.5  1.696911e-02
46077.0  1.814642e-02
46090.5  1.941550e-02
46104.0  2.078665e-02
46117.5  2.223110e-02
46131.0  2.378370e-02
46144.6  2.546500e-02
46158.1  2.727890e-02
46171.6  2.921431e-02
46185.1  3.127225e-02
46198.6  3.350936e-02
46212.1  3.591455e-02
46225.6  3.850186e-02
46239.1  4.125645e-02
46252.7  4.420816e-02
46266.2  4.740477e-02
46279.7  5.082638e-02
46293.2  5.448101e-02
46306.7  5.837584e-02
46320.2  6.256740e-02
46333.7  6.707276e-02
46347.2  7.187122e-02
46360.8  7.697165e-02
46374.3  8.241783e-02
46387.8  8.825910e-02
46401.3  9.446071e-02
46414.8  1.010680e-01
46428.3  1.080322e-01
46441.8  1.154342e-01
46455.3  1.233225e-01
46468.8  1.315898e-01
46482.4  1.403092e-01
46495.9  1.495014e-01
46509.4  1.591459e-01
46522.9  1.692669e-01
46536.4  1.798123e-01
46549.9  1.907438e-01
46563.4  2.021472e-01
46576.9  2.139534e-01
46590.5  2.260595e-01
46604.0  2.386338e-01
46617.5  2.513505e-01
46631.0  2.643619e-01
46644.5  2.778030e-01
46658.0  2.910606e-01
46671.5  3.045255e-01
46685.0  3.181571e-01
46698.6  3.315087e-01
46712.1  3.448870e-01
46725.6  3.580577e-01
46739.1  3.707720e-01
46752.6  3.833381e-01
46766.1  3.953626e-01
46779.6  4.068318e-01
46793.1  4.179469e-01
46806.7  4.281211e-01
46820.2  4.377478e-01
46833.7  4.470029e-01
46847.2  4.550602e-01
46860.7  4.626247e-01
46874.2  4.695879e-01
46887.7  4.756473e-01
46901.2  4.812056e-01
46914.8  4.860411e-01
46928.3  4.902170e-01
46941.8  4.939321e-01
46955.3  4.969761e-01
46968.8  4.996099e-01
46982.3  5.018256e-01
46995.8  5.034832e-01
47009.3  5.049180e-01
47022.9  5.059667e-01
47036.4  5.067150e-01
47049.9  5.072989e-01
47063.4  5.075533e-01
47076.9  5.077221e-01
47090.4  5.077291e-01
47103.9  5.076187e-01
47117.4  5.074395e-01
47131.0  5.071283e-01
47144.5  5.068134e-01
47158.0  5.064693e-01
47171.5  5.060187e-01
47185.0  5.056015e-01
47198.5  5.051743e-01
47212.0  5.046924e-01
47225.5  5.042498e-01
47239.1  5.037955e-01
47252.6  5.032847e-01
47266.1  5.028311e-01
47279.6  5.023895e-01
47293.1  5.019010e-01
47306.6  5.014600e-01
47320.1  5.009980e-01
47333.6  5.005999e-01
47347.1  5.002179e-01
47360.7  4.997969e-01
47374.2  4.994147e-01
47387.7  4.990388e-01
47401.2  4.986489e-01
47414.7  4.982882e-01
47428.2  4.979050e-01
47441.7  4.974921e-01
47455.2  4.970984e-01
47468.8  4.966909e-01
47482.3  4.962507e-01
47495.8  4.957995e-01
47509.3  4.953443e-01
47522.8  4.948762e-01
47536.3  4.944179e-01
47549.8  4.939425e-01
47563.3  4.934462e-01
47576.9  4.929679e-01
47590.4  4.924924e-01
47603.9  4.920240e-01
47617.4  4.915396e-01
47630.9  4.910353e-01
47644.4  4.905444e-01
47657.9  4.900615e-01
47671.4  4.895806e-01
47685.0  4.890855e-01
47698.5  4.885890e-01
47712.0  4.881043e-01
47725.5  4.876248e-01
47739.0  4.871454e-01
47752.5  4.866677e-01
47766.0  4.862021e-01
47779.5  4.857676e-01
47793.1  4.853507e-01
47806.6  4.849329e-01
47820.1  4.845426e-01
47833.6  4.841660e-01
47847.1  4.838208e-01
47860.6  4.834977e-01
47874.1  4.831638e-01
47887.6  4.828433e-01
47901.2  4.825643e-01
47914.7  4.822867e-01
47928.2  4.819933e-01
47941.7  4.817209e-01
47955.2  4.814248e-01
47968.7  4.811432e-01
47982.2  4.808986e-01
47995.7  4.806039e-01
48009.3  4.803116e-01
48022.8  4.800574e-01
48036.3  4.797918e-01
48049.8  4.795338e-01
48063.3  4.792788e-01
48076.8  4.789939e-01
48090.3  4.787477e-01
48103.8  4.784685e-01
48117.4  4.781858e-01
48130.9  4.778939e-01
48144.4  4.775663e-01
48157.9  4.772404e-01
48171.4  4.769422e-01
48184.9  4.765944e-01
48198.4  4.761883e-01
48211.9  4.758204e-01
48225.5  4.754099e-01
48239.0  4.749830e-01
48252.5  4.745853e-01
48266.0  4.741035e-01
48279.5  4.736328e-01
48293.0  4.732163e-01
48306.5  4.727541e-01
48320.0  4.723274e-01
48333.5  4.718302e-01
48347.1  4.713421e-01
48360.6  4.709056e-01
48374.1  4.704180e-01
48387.6  4.699230e-01
48401.1  4.694403e-01
48414.6  4.689264e-01
48428.1  4.684245e-01
48441.6  4.679319e-01
48455.2  4.673861e-01
48468.7  4.668113e-01
48482.2  4.662828e-01
48495.7  4.657248e-01
48509.2  4.651350e-01
48522.7  4.645706e-01
48536.2  4.639544e-01
48549.7  4.633446e-01
48563.3  4.627823e-01
48576.8  4.621481e-01
48590.3  4.615326e-01
48603.8  4.608678e-01
48617.3  4.601979e-01
48630.8  4.595521e-01
48644.3  4.588143e-01
48657.8  4.580462e-01
48671.4  4.572816e-01
48684.9  4.564820e-01
48698.4  4.556712e-01
48711.9  4.548424e-01
48725.4  4.539545e-01
48738.9  4.530637e-01
48752.4  4.521948e-01
48765.9  4.512977e-01
48779.5  4.503759e-01
48793.0  4.493103e-01
48806.5  4.482499e-01
48820.0  4.471979e-01
48833.5  4.460360e-01
48847.0  4.449898e-01
48860.5  4.438132e-01
48874.0  4.428054e-01
48887.6  4.418181e-01
48901.1  4.407241e-01
48914.6  4.397578e-01
48928.1  4.387982e-01
48941.6  4.377653e-01
48955.1  4.369001e-01
48968.6  4.360667e-01
48982.1  4.351137e-01
48995.7  4.343264e-01
49009.2  4.335862e-01
49022.7  4.327730e-01
49036.2  4.321007e-01
49049.7  4.314303e-01
49063.2  4.306323e-01
49076.7  4.299772e-01
49090.2  4.292060e-01
49103.8  4.285120e-01
49117.3  4.277723e-01
49130.8  4.267805e-01
49144.3  4.258855e-01
49157.8  4.248419e-01
49171.3  4.235140e-01
49184.8  4.221211e-01
49198.3  4.204851e-01
49211.8  4.185965e-01
49225.4  4.164608e-01
49238.9  4.141861e-01
49252.4  4.113158e-01
49265.9  4.083315e-01
49279.4  4.050901e-01
49292.9  4.012847e-01
49306.4  3.975261e-01
49319.9  3.931179e-01
49333.5  3.884873e-01
49347.0  3.836608e-01
49360.5  3.784858e-01
49374.0  3.733330e-01
49387.5  3.678081e-01
49401.0  3.621927e-01
49414.5  3.564617e-01
49428.0  3.508222e-01
49441.6  3.450009e-01
49455.1  3.393159e-01
49468.6  3.337251e-01
49482.1  3.280782e-01
49495.6  3.227824e-01
49509.1  3.175661e-01
49522.6  3.124260e-01
49536.1  3.075337e-01
49549.7  3.028610e-01
49563.2  2.982926e-01
49576.7  2.940009e-01
49590.2  2.897945e-01
49603.7  2.858110e-01
49617.2  2.820265e-01
49630.7  2.783090e-01
49644.2  2.748265e-01
49657.8  2.714665e-01
49671.3  2.680429e-01
49684.8  2.648448e-01
49698.3  2.617105e-01
49711.8  2.585406e-01
49725.3  2.554596e-01
49738.8  2.523775e-01
49752.3  2.491959e-01
49765.9  2.460887e-01
49779.4  2.430329e-01
49792.9  2.396640e-01
49806.4  2.364097e-01
49819.9  2.329882e-01
49833.4  2.294225e-01
49846.9  2.258729e-01
49860.4  2.220203e-01
49874.0  2.182118e-01
49887.5  2.141071e-01
49901.0  2.099219e-01
49914.5  2.055645e-01
49928.0  2.011344e-01
49941.5  1.963938e-01
49955.0  1.915874e-01
49968.5  1.867090e-01
49982.1  1.815306e-01
49995.6  1.764887e-01
50009.1  1.710630e-01
50022.6  1.656904e-01
50036.1  1.601968e-01
50049.6  1.547188e-01
50063.1  1.491639e-01
50076.6  1.435534e-01
50090.1  1.379735e-01
50103.7  1.323577e-01
50117.2  1.269111e-01
50130.7  1.213594e-01
50144.2  1.160121e-01
50157.7  1.106654e-01
50171.2  1.054279e-01
50184.7  1.003612e-01
50198.2  9.541434e-02
50211.8  9.062784e-02
50225.3  8.593434e-02
50238.8  8.145668e-02
50252.3  7.708944e-02
50265.8  7.295617e-02
50279.3  6.897618e-02
50292.8  6.513951e-02
50306.3  6.148000e-02
50319.9  5.800790e-02
50333.4  5.470630e-02
50346.9  5.157889e-02
50360.4  4.860787e-02
50373.9  4.576616e-02
50387.4  4.309330e-02
50400.9  4.056605e-02
50414.4  3.819590e-02
50428.0  3.595841e-02
50441.5  3.382587e-02
50455.0  3.182228e-02
50468.5  2.995811e-02
50482.0  2.819928e-02
50495.5  2.654630e-02
50509.0  2.498819e-02
50522.5  2.350052e-02
50536.1  2.212088e-02
50549.6  2.084337e-02
50563.1  1.963175e-02
50576.6  1.849622e-02
50590.1  1.741508e-02
50603.6  1.640121e-02
50617.1  1.547341e-02
50630.6  1.459722e-02
50644.2  1.377459e-02
50657.7  1.299786e-02
50671.2  1.226060e-02
50684.7  1.157673e-02
50698.2  1.094716e-02
50711.7  1.034558e-02
50725.2  9.774461e-03
50738.7  9.235949e-03
50752.3  8.726486e-03
50765.8  8.267100e-03
50779.3  7.835189e-03
50792.8  7.412823e-03
50806.3  7.015052e-03
50819.8  6.641164e-03
50833.3  6.293147e-03
50846.8  5.977452e-03
50860.4  5.670169e-03
50873.9  5.373091e-03
50887.4  5.095457e-03
50900.9  4.833395e-03
50914.4  4.597911e-03
50927.9  4.377204e-03
50941.4  4.152382e-03
50954.9  3.939938e-03
50968.4  3.744650e-03
50982.0  3.561126e-03
50995.5  3.395670e-03
51009.0  0.000000e+00
51022.5  0.000000e+00
