# from http://www.stsci.edu/jwst/instruments/nircam/instrumentdesign/filters
# Retrieved March, 2023, dated Nov, 2022 (post-flight)
# Uses modA or modB  filters+DBS+QE+OTE (nrc_plus_ote)
# Units of transmission are PCE (photon to electron conversion efficiency)
# 
7475.5  0.000000e+00
7485.5  0.000000e+00
7495.5  4.182846e-07
7505.5  4.412206e-07
7515.5  4.710297e-07
7525.5  4.481337e-07
7535.5  4.837942e-07
7545.5  4.668152e-07
7555.5  4.665817e-07
7565.5  4.328403e-07
7575.5  4.740687e-07
7585.5  5.251172e-07
7595.5  5.289357e-07
7605.5  5.474035e-07
7615.5  5.381299e-07
7625.5  6.025704e-07
7635.5  6.003462e-07
7645.5  6.166931e-07
7655.5  6.448927e-07
7665.5  6.548144e-07
7675.5  7.108684e-07
7685.5  7.599362e-07
7695.5  9.995079e-07
7705.5  1.151986e-06
7715.5  1.563723e-06
7725.5  2.072826e-06
7735.5  3.068898e-06
7745.5  4.643446e-06
7755.5  6.863935e-06
7765.5  9.969074e-06
7775.5  1.412671e-05
7785.5  1.987303e-05
7795.5  2.697624e-05
7805.5  3.786175e-05
7815.5  5.397258e-05
7825.5  8.131677e-05
7835.5  1.349331e-04
7845.5  2.337517e-04
7855.5  4.548201e-04
7865.5  9.871689e-04
7875.5  2.238961e-03
7885.5  5.275391e-03
7895.5  1.239929e-02
7905.5  2.612751e-02
7915.5  4.898619e-02
7925.5  8.056279e-02
7935.5  1.190202e-01
7945.5  1.569201e-01
7955.5  1.907886e-01
7965.5  2.192662e-01
7975.5  2.402807e-01
7985.5  2.551948e-01
7995.5  2.647344e-01
8005.5  2.713982e-01
8015.5  2.745861e-01
8025.5  2.754564e-01
8035.5  2.759120e-01
8045.5  2.770346e-01
8055.5  2.778671e-01
8065.5  2.770416e-01
8075.5  2.736416e-01
8085.5  2.690348e-01
8095.5  2.656063e-01
8105.5  2.650215e-01
8115.5  2.670546e-01
8125.5  2.704077e-01
8135.5  2.726316e-01
8145.5  2.750148e-01
8155.5  2.743291e-01
8165.5  2.740821e-01
8175.5  2.759598e-01
8185.5  2.805785e-01
8195.5  2.854147e-01
8205.5  2.920083e-01
8215.5  2.968670e-01
8225.5  2.991575e-01
8235.5  2.998933e-01
8245.5  2.992201e-01
8255.5  2.959417e-01
8265.5  2.927054e-01
8275.5  2.909132e-01
8285.5  2.907741e-01
8295.5  2.919271e-01
8305.5  2.927836e-01
8315.5  2.933443e-01
8325.5  2.927232e-01
8335.5  2.909993e-01
8345.5  2.888091e-01
8355.5  2.889076e-01
8365.5  2.899241e-01
8375.5  2.920920e-01
8385.5  2.946763e-01
8395.5  2.967357e-01
8405.5  2.987921e-01
8415.5  3.004996e-01
8425.5  3.020240e-01
8435.5  3.033667e-01
8445.5  3.047814e-01
8455.5  3.048435e-01
8465.5  3.050362e-01
8475.5  3.037582e-01
8485.5  3.034613e-01
8495.5  3.045578e-01
8505.5  3.055640e-01
8515.5  3.077071e-01
8525.5  3.072241e-01
8535.5  3.064802e-01
8545.5  3.059226e-01
8555.5  3.041963e-01
8565.5  3.040780e-01
8575.5  3.039877e-01
8585.5  3.049492e-01
8595.5  3.044218e-01
8605.5  3.057492e-01
8615.5  3.059047e-01
8625.5  3.043462e-01
8635.5  3.039968e-01
8645.5  3.060273e-01
8655.5  3.070986e-01
8665.5  3.115101e-01
8675.5  3.132195e-01
8685.5  3.139586e-01
8695.5  3.159598e-01
8705.5  3.186577e-01
8715.5  3.173878e-01
8725.5  3.199145e-01
8735.5  3.201536e-01
8745.5  3.203111e-01
8755.5  3.169569e-01
8765.5  3.161576e-01
8775.5  3.180608e-01
8785.5  3.163970e-01
8795.5  3.127333e-01
8805.5  3.153088e-01
8815.5  3.130279e-01
8825.5  3.132481e-01
8835.5  3.121957e-01
8845.5  3.125238e-01
8855.5  3.064358e-01
8865.5  3.030382e-01
8875.5  3.081053e-01
8885.5  3.149278e-01
8895.5  3.127184e-01
8905.5  3.139414e-01
8915.5  3.209682e-01
8925.5  3.236834e-01
8935.5  3.246483e-01
8945.5  3.257000e-01
8955.5  3.261945e-01
8965.5  3.247744e-01
8975.5  3.234973e-01
8985.5  3.221376e-01
8995.5  3.210372e-01
9005.5  3.199802e-01
9015.5  3.180308e-01
9025.5  3.169117e-01
9035.5  3.142728e-01
9045.5  3.125401e-01
9055.5  3.130543e-01
9065.5  3.114703e-01
9075.5  3.102239e-01
9085.5  3.118049e-01
9095.5  3.128382e-01
9105.5  3.155003e-01
9115.5  3.175818e-01
9125.5  3.203329e-01
9135.5  3.244284e-01
9145.5  3.268883e-01
9155.5  3.301756e-01
9165.5  3.349728e-01
9175.5  3.364289e-01
9185.5  3.392664e-01
9195.5  3.399718e-01
9205.5  3.398569e-01
9215.5  3.408591e-01
9225.5  3.401144e-01
9235.5  3.393894e-01
9245.5  3.366576e-01
9255.5  3.359694e-01
9265.5  3.344922e-01
9275.5  3.324812e-01
9285.5  3.306987e-01
9295.5  3.302761e-01
9305.5  3.292929e-01
9315.5  3.290841e-01
9325.5  3.287717e-01
9335.5  3.281079e-01
9345.5  3.279045e-01
9355.5  3.272963e-01
9365.5  3.268935e-01
9375.5  3.270626e-01
9385.5  3.263788e-01
9395.5  3.268834e-01
9405.5  3.283318e-01
9415.5  3.290172e-01
9425.5  3.312458e-01
9435.5  3.330871e-01
9445.5  3.358895e-01
9455.5  3.373678e-01
9465.5  3.388981e-01
9475.5  3.383359e-01
9485.5  3.378279e-01
9495.5  3.374869e-01
9505.5  3.361609e-01
9515.5  3.364003e-01
9525.5  3.335877e-01
9535.5  3.330717e-01
9545.5  3.312573e-01
9555.5  3.304186e-01
9565.5  3.290116e-01
9575.5  3.276147e-01
9585.5  3.283846e-01
9595.5  3.291821e-01
9605.5  3.302871e-01
9615.5  3.318756e-01
9625.5  3.342945e-01
9635.5  3.367526e-01
9645.5  3.394368e-01
9655.5  3.412632e-01
9665.5  3.428306e-01
9675.5  3.442580e-01
9685.5  3.452749e-01
9695.5  3.465715e-01
9705.5  3.454597e-01
9715.5  3.451932e-01
9725.5  3.446122e-01
9735.5  3.438359e-01
9745.5  3.413753e-01
9755.5  3.419750e-01
9765.5  3.393366e-01
9775.5  3.378496e-01
9785.5  3.359748e-01
9795.5  3.342103e-01
9805.5  3.318304e-01
9815.5  3.327200e-01
9825.5  3.332352e-01
9835.5  3.347995e-01
9845.5  3.370145e-01
9855.5  3.405780e-01
9865.5  3.422669e-01
9875.5  3.448113e-01
9885.5  3.460651e-01
9895.5  3.470196e-01
9905.5  3.469980e-01
9915.5  3.460886e-01
9925.5  3.457893e-01
9935.5  3.440781e-01
9945.5  3.426886e-01
9955.5  3.435094e-01
9965.5  3.425525e-01
9975.5  3.418667e-01
9985.5  3.390176e-01
9995.5  3.340239e-01
10005.5  3.225937e-01
10015.5  3.031216e-01
10025.5  2.728830e-01
10035.5  2.334413e-01
10045.5  1.936264e-01
10055.5  1.567954e-01
10065.5  1.291240e-01
10075.5  1.041183e-01
10085.5  8.630967e-02
10095.5  7.021505e-02
10105.5  5.983577e-02
10115.5  5.000394e-02
10125.5  4.356063e-02
10135.5  3.694154e-02
10145.5  3.255821e-02
10155.5  2.776294e-02
10165.5  2.453315e-02
10175.5  2.079234e-02
10185.5  1.749127e-02
10195.5  1.407768e-02
10205.5  1.089016e-02
10215.5  8.129056e-03
10225.5  5.865937e-03
10235.5  4.337996e-03
10245.5  3.044931e-03
10255.5  2.159811e-03
10265.5  1.512820e-03
10275.5  1.085488e-03
10285.5  7.882335e-04
10295.5  5.633808e-04
10305.5  4.325223e-04
10315.5  3.200622e-04
10325.5  2.425484e-04
10335.5  1.837729e-04
10345.5  1.425952e-04
10355.5  1.094173e-04
10365.5  8.686610e-05
10375.5  6.972488e-05
10385.5  5.456074e-05
10395.5  4.501893e-05
10405.5  3.647690e-05
10415.5  2.981932e-05
10425.5  2.449404e-05
10435.5  2.042102e-05
10445.5  1.753611e-05
10455.5  1.456003e-05
10465.5  1.266009e-05
10475.5  1.132221e-05
10485.5  9.372478e-06
10495.5  8.864744e-06
10505.5  7.821770e-06
10515.5  6.989687e-06
10525.5  6.271524e-06
10535.5  5.729818e-06
10545.5  4.467034e-06
10555.5  5.146527e-06
10565.5  5.247784e-06
10575.5  4.430173e-06
10585.5  4.500035e-06
10595.5  4.025532e-06
10605.5  3.792237e-06
10615.5  3.759026e-06
10625.5  3.728658e-06
10635.5  2.975993e-06
10645.5  3.338940e-06
10655.5  2.893672e-06
10665.5  3.950184e-06
10675.5  3.031826e-06
10685.5  3.569885e-06
10695.5  3.062181e-06
10705.5  3.264448e-06
10715.5  0.000000e+00
10725.5  0.000000e+00
