# from http://www.stsci.edu/jwst/instruments/nircam/instrumentdesign/filters
# Retrieved March, 2023, dated Nov, 2022 (post-flight)
# Uses modA or modB  filters+DBS+QE+OTE (nrc_plus_ote)
# Units of transmission are PCE (photon to electron conversion efficiency)
# 
7475.5  0.000000e+00
7485.5  0.000000e+00
7495.5  4.495674e-07
7505.5  4.226680e-07
7515.5  4.482076e-07
7525.5  4.400846e-07
7535.5  5.165648e-07
7545.5  4.108171e-07
7555.5  5.099586e-07
7565.5  4.624920e-07
7575.5  5.244774e-07
7585.5  5.712049e-07
7595.5  5.033304e-07
7605.5  5.194988e-07
7615.5  5.334702e-07
7625.5  6.475915e-07
7635.5  5.892087e-07
7645.5  5.721776e-07
7655.5  6.220007e-07
7665.5  6.680756e-07
7675.5  6.691187e-07
7685.5  6.307361e-07
7695.5  7.551528e-07
7705.5  7.456809e-07
7715.5  7.951403e-07
7725.5  7.389826e-07
7735.5  7.830538e-07
7745.5  8.191540e-07
7755.5  8.999810e-07
7765.5  9.918205e-07
7775.5  9.945351e-07
7785.5  1.213171e-06
7795.5  1.479990e-06
7805.5  2.293308e-06
7815.5  3.822816e-06
7825.5  7.445076e-06
7835.5  1.666141e-05
7845.5  3.847445e-05
7855.5  9.043267e-05
7865.5  2.187134e-04
7875.5  5.673855e-04
7885.5  1.534767e-03
7895.5  4.140407e-03
7905.5  1.055136e-02
7915.5  2.370654e-02
7925.5  4.573201e-02
7935.5  7.652797e-02
7945.5  1.129469e-01
7955.5  1.503014e-01
7965.5  1.849593e-01
7975.5  2.148607e-01
7985.5  2.384087e-01
7995.5  2.548515e-01
8005.5  2.665396e-01
8015.5  2.736585e-01
8025.5  2.786515e-01
8035.5  2.828840e-01
8045.5  2.881430e-01
8055.5  2.911324e-01
8065.5  2.913589e-01
8075.5  2.869034e-01
8085.5  2.797400e-01
8095.5  2.725051e-01
8105.5  2.691725e-01
8115.5  2.691208e-01
8125.5  2.710009e-01
8135.5  2.716591e-01
8145.5  2.714427e-01
8155.5  2.682456e-01
8165.5  2.652735e-01
8175.5  2.665365e-01
8185.5  2.732895e-01
8195.5  2.815804e-01
8205.5  2.931624e-01
8215.5  3.012290e-01
8225.5  3.073454e-01
8235.5  3.097685e-01
8245.5  3.100369e-01
8255.5  3.063258e-01
8265.5  3.015947e-01
8275.5  2.994896e-01
8285.5  2.992532e-01
8295.5  3.009958e-01
8305.5  3.035884e-01
8315.5  3.039879e-01
8325.5  3.025095e-01
8335.5  2.991392e-01
8345.5  2.950590e-01
8355.5  2.921072e-01
8365.5  2.910907e-01
8375.5  2.918942e-01
8385.5  2.942122e-01
8395.5  2.967469e-01
8405.5  2.992483e-01
8415.5  3.006379e-01
8425.5  3.037519e-01
8435.5  3.071272e-01
8445.5  3.104334e-01
8455.5  3.133629e-01
8465.5  3.152296e-01
8475.5  3.151980e-01
8485.5  3.160054e-01
8495.5  3.180191e-01
8505.5  3.191372e-01
8515.5  3.211847e-01
8525.5  3.195890e-01
8535.5  3.180478e-01
8545.5  3.155017e-01
8555.5  3.126613e-01
8565.5  3.104187e-01
8575.5  3.084119e-01
8585.5  3.076849e-01
8595.5  3.048452e-01
8605.5  3.032310e-01
8615.5  3.015343e-01
8625.5  2.988164e-01
8635.5  2.992316e-01
8645.5  3.025558e-01
8655.5  3.037787e-01
8665.5  3.087023e-01
8675.5  3.146925e-01
8685.5  3.184122e-01
8695.5  3.219503e-01
8705.5  3.272179e-01
8715.5  3.290358e-01
8725.5  3.319364e-01
8735.5  3.327301e-01
8745.5  3.320585e-01
8755.5  3.281623e-01
8765.5  3.261797e-01
8775.5  3.253262e-01
8785.5  3.217049e-01
8795.5  3.155786e-01
8805.5  3.160522e-01
8815.5  3.139835e-01
8825.5  3.106152e-01
8835.5  3.113310e-01
8845.5  3.073002e-01
8855.5  2.997204e-01
8865.5  2.959676e-01
8875.5  2.958569e-01
8885.5  3.053719e-01
8895.5  3.036201e-01
8905.5  3.130607e-01
8915.5  3.233935e-01
8925.5  3.301122e-01
8935.5  3.328734e-01
8945.5  3.348467e-01
8955.5  3.383273e-01
8965.5  3.412920e-01
8975.5  3.343968e-01
8985.5  3.312505e-01
8995.5  3.302251e-01
9005.5  3.263620e-01
9015.5  3.220287e-01
9025.5  3.183762e-01
9035.5  3.138825e-01
9045.5  3.098821e-01
9055.5  3.077575e-01
9065.5  3.047665e-01
9075.5  3.028665e-01
9085.5  3.033793e-01
9095.5  3.047248e-01
9105.5  3.093625e-01
9115.5  3.124142e-01
9125.5  3.167961e-01
9135.5  3.244257e-01
9145.5  3.277818e-01
9155.5  3.347119e-01
9165.5  3.418873e-01
9175.5  3.460741e-01
9185.5  3.498889e-01
9195.5  3.515184e-01
9205.5  3.519283e-01
9215.5  3.539675e-01
9225.5  3.522890e-01
9235.5  3.505293e-01
9245.5  3.458927e-01
9255.5  3.432030e-01
9265.5  3.404641e-01
9275.5  3.369895e-01
9285.5  3.330475e-01
9295.5  3.319527e-01
9305.5  3.298019e-01
9315.5  3.291793e-01
9325.5  3.284038e-01
9335.5  3.276258e-01
9345.5  3.269293e-01
9355.5  3.264554e-01
9365.5  3.257089e-01
9375.5  3.267922e-01
9385.5  3.270267e-01
9395.5  3.287598e-01
9405.5  3.329699e-01
9415.5  3.362331e-01
9425.5  3.409142e-01
9435.5  3.443078e-01
9445.5  3.494981e-01
9455.5  3.515530e-01
9465.5  3.543260e-01
9475.5  3.530135e-01
9485.5  3.505542e-01
9495.5  3.487961e-01
9505.5  3.464548e-01
9515.5  3.440527e-01
9525.5  3.400653e-01
9535.5  3.384484e-01
9545.5  3.348613e-01
9555.5  3.335609e-01
9565.5  3.316540e-01
9575.5  3.299889e-01
9585.5  3.294840e-01
9595.5  3.319868e-01
9605.5  3.333074e-01
9615.5  3.357386e-01
9625.5  3.400432e-01
9635.5  3.446421e-01
9645.5  3.490006e-01
9655.5  3.531588e-01
9665.5  3.567713e-01
9675.5  3.584912e-01
9685.5  3.605491e-01
9695.5  3.630130e-01
9705.5  3.605793e-01
9715.5  3.598918e-01
9725.5  3.586713e-01
9735.5  3.570586e-01
9745.5  3.547953e-01
9755.5  3.539062e-01
9765.5  3.506943e-01
9775.5  3.481371e-01
9785.5  3.435328e-01
9795.5  3.411018e-01
9805.5  3.375900e-01
9815.5  3.366465e-01
9825.5  3.381342e-01
9835.5  3.410049e-01
9845.5  3.451381e-01
9855.5  3.511658e-01
9865.5  3.555601e-01
9875.5  3.601890e-01
9885.5  3.614251e-01
9895.5  3.635826e-01
9905.5  3.626480e-01
9915.5  3.624025e-01
9925.5  3.613033e-01
9935.5  3.592344e-01
9945.5  3.560973e-01
9955.5  3.580568e-01
9965.5  3.567096e-01
9975.5  3.577213e-01
9985.5  3.584158e-01
9995.5  3.581980e-01
10005.5  3.544656e-01
10015.5  3.389888e-01
10025.5  3.102992e-01
10035.5  2.673342e-01
10045.5  2.143884e-01
10055.5  1.702305e-01
10065.5  1.381157e-01
10075.5  1.108594e-01
10085.5  9.006186e-02
10095.5  7.230309e-02
10105.5  6.191136e-02
10115.5  4.996766e-02
10125.5  4.467642e-02
10135.5  3.779604e-02
10145.5  3.308979e-02
10155.5  2.780504e-02
10165.5  2.553808e-02
10175.5  2.194006e-02
10185.5  1.926063e-02
10195.5  1.606025e-02
10205.5  1.252013e-02
10215.5  9.345439e-03
10225.5  6.925731e-03
10235.5  4.885307e-03
10245.5  3.397217e-03
10255.5  2.351657e-03
10265.5  1.636388e-03
10275.5  1.131598e-03
10285.5  8.061590e-04
10295.5  5.782373e-04
10305.5  4.156051e-04
10315.5  3.067812e-04
10325.5  2.283737e-04
10335.5  1.706819e-04
10345.5  1.297163e-04
10355.5  9.949996e-05
10365.5  7.725956e-05
10375.5  6.043598e-05
10385.5  4.788501e-05
10395.5  3.988122e-05
10405.5  3.225096e-05
10415.5  2.632821e-05
10425.5  2.163834e-05
10435.5  1.850973e-05
10445.5  1.592426e-05
10455.5  1.388235e-05
10465.5  1.235040e-05
10475.5  1.145416e-05
10485.5  9.890762e-06
10495.5  8.788374e-06
10505.5  8.400746e-06
10515.5  7.780290e-06
10525.5  7.294629e-06
10535.5  6.751880e-06
10545.5  6.138665e-06
10555.5  5.938152e-06
10565.5  6.002527e-06
10575.5  5.643009e-06
10585.5  5.671977e-06
10595.5  5.395793e-06
10605.5  5.208592e-06
10615.5  4.705098e-06
10625.5  5.607181e-06
10635.5  4.554702e-06
10645.5  4.780124e-06
10655.5  4.130882e-06
10665.5  5.139637e-06
10675.5  4.889672e-06
10685.5  4.167772e-06
10695.5  3.861231e-06
10705.5  4.520059e-06
10715.5  0.000000e+00
10725.5  0.000000e+00
