# from http://www.stsci.edu/jwst/instruments/nircam/instrumentdesign/filters
# Retrieved March, 2023, dated Nov, 2022 (post-flight)
# Uses modA or modB  filters+DBS+QE+OTE (nrc_plus_ote)
# Units of transmission are PCE (photon to electron conversion efficiency)
# 
12483.5  0.000000e+00
12493.5  0.000000e+00
12503.5  3.265736e-06
12513.5  3.640883e-06
12523.5  4.441374e-06
12533.5  5.278716e-06
12543.5  4.442728e-06
12553.5  5.101081e-06
12563.5  5.632694e-06
12573.5  5.541264e-06
12583.5  6.033820e-06
12593.5  6.702886e-06
12603.5  8.145743e-06
12613.5  7.361154e-06
12623.5  8.842191e-06
12633.5  1.042451e-05
12643.5  1.250288e-05
12653.5  1.313891e-05
12663.5  1.560980e-05
12673.5  1.632532e-05
12683.5  2.078706e-05
12693.5  2.241690e-05
12703.5  2.649969e-05
12713.5  3.143141e-05
12723.5  3.475799e-05
12733.5  4.055525e-05
12743.5  4.331663e-05
12753.5  5.009264e-05
12763.5  5.734213e-05
12773.5  6.676195e-05
12783.5  7.287699e-05
12793.5  8.548254e-05
12803.5  9.492387e-05
12813.5  1.073329e-04
12823.5  1.207663e-04
12833.5  1.440427e-04
12843.5  1.584595e-04
12853.5  1.799312e-04
12863.5  2.022682e-04
12873.5  2.416943e-04
12883.5  2.766768e-04
12893.5  3.199053e-04
12903.5  3.887219e-04
12913.5  4.431717e-04
12923.5  5.333832e-04
12933.5  6.079895e-04
12943.5  7.361681e-04
12953.5  9.002703e-04
12963.5  1.092017e-03
12973.5  1.324626e-03
12983.5  1.599014e-03
12993.5  1.958275e-03
13003.5  2.372699e-03
13013.5  2.930029e-03
13023.5  3.540675e-03
13033.5  4.343900e-03
13043.5  5.325343e-03
13053.5  6.118676e-03
13063.5  7.629570e-03
13073.5  8.910799e-03
13083.5  1.006389e-02
13093.5  1.143576e-02
13103.5  1.272874e-02
13113.5  1.449055e-02
13123.5  1.512141e-02
13133.5  1.764475e-02
13143.5  1.953135e-02
13153.5  2.257299e-02
13163.5  2.529610e-02
13173.5  2.912939e-02
13183.5  3.341557e-02
13193.5  3.936703e-02
13203.5  4.455860e-02
13213.5  5.254507e-02
13223.5  6.031514e-02
13233.5  7.287631e-02
13243.5  8.118475e-02
13253.5  9.692548e-02
13263.5  1.120309e-01
13273.5  1.318022e-01
13283.5  1.559635e-01
13293.5  1.793366e-01
13303.5  2.078618e-01
13313.5  2.337254e-01
13323.5  2.709365e-01
13333.5  3.023125e-01
13343.5  3.341480e-01
13353.5  3.561283e-01
13363.5  3.761695e-01
13373.5  4.018946e-01
13383.5  4.038070e-01
13393.5  4.222133e-01
13403.5  4.227209e-01
13413.5  4.245161e-01
13423.5  4.320965e-01
13433.5  4.253863e-01
13443.5  4.289092e-01
13453.5  4.316380e-01
13463.5  4.312858e-01
13473.5  4.281281e-01
13483.5  4.382948e-01
13493.5  4.307386e-01
13503.5  4.397195e-01
13513.5  4.309262e-01
13523.5  4.369637e-01
13533.5  4.340545e-01
13543.5  4.295653e-01
13553.5  4.377427e-01
13563.5  4.345849e-01
13573.5  4.322084e-01
13583.5  4.334694e-01
13593.5  4.273645e-01
13603.5  4.379777e-01
13613.5  4.370273e-01
13623.5  4.323506e-01
13633.5  4.324905e-01
13643.5  4.361703e-01
13653.5  4.365351e-01
13663.5  4.340029e-01
13673.5  4.398812e-01
13683.5  4.328526e-01
13693.5  4.363443e-01
13703.5  4.369278e-01
13713.5  4.334049e-01
13723.5  4.343647e-01
13733.5  4.367208e-01
13743.5  4.293055e-01
13753.5  4.328508e-01
13763.5  4.277089e-01
13773.5  4.244445e-01
13783.5  4.266299e-01
13793.5  4.229781e-01
13803.5  4.220323e-01
13813.5  4.218312e-01
13823.5  4.167496e-01
13833.5  4.178617e-01
13843.5  4.201649e-01
13853.5  4.120114e-01
13863.5  4.228145e-01
13873.5  4.152117e-01
13883.5  4.157368e-01
13893.5  4.145341e-01
13903.5  4.189445e-01
13913.5  4.124172e-01
13923.5  4.193057e-01
13933.5  4.158716e-01
13943.5  4.166854e-01
13953.5  4.154322e-01
13963.5  4.135829e-01
13973.5  4.148517e-01
13983.5  4.246758e-01
13993.5  4.181478e-01
14003.5  4.180028e-01
14013.5  4.192190e-01
14023.5  4.209091e-01
14033.5  4.236921e-01
14043.5  4.286317e-01
14053.5  4.282281e-01
14063.5  4.239357e-01
14073.5  4.309156e-01
14083.5  4.319778e-01
14093.5  4.317715e-01
14103.5  4.366104e-01
14113.5  4.351460e-01
14123.5  4.367801e-01
14133.5  4.407994e-01
14143.5  4.333961e-01
14153.5  4.436053e-01
14163.5  4.435409e-01
14173.5  4.451632e-01
14183.5  4.477214e-01
14193.5  4.470172e-01
14203.5  4.426632e-01
14213.5  4.523233e-01
14223.5  4.465079e-01
14233.5  4.501220e-01
14243.5  4.502326e-01
14253.5  4.496416e-01
14263.5  4.526201e-01
14273.5  4.496639e-01
14283.5  4.484046e-01
14293.5  4.507341e-01
14303.5  4.551359e-01
14313.5  4.527109e-01
14323.5  4.495067e-01
14333.5  4.497190e-01
14343.5  4.496506e-01
14353.5  4.493526e-01
14363.5  4.488077e-01
14373.5  4.491072e-01
14383.5  4.493935e-01
14393.5  4.483665e-01
14403.5  4.513128e-01
14413.5  4.487047e-01
14423.5  4.480463e-01
14433.5  4.519410e-01
14443.5  4.503305e-01
14453.5  4.523197e-01
14463.5  4.503857e-01
14473.5  4.533788e-01
14483.5  4.553237e-01
14493.5  4.567289e-01
14503.5  4.506239e-01
14513.5  4.567310e-01
14523.5  4.579197e-01
14533.5  4.597276e-01
14543.5  4.597877e-01
14553.5  4.625074e-01
14563.5  4.556921e-01
14573.5  4.608918e-01
14583.5  4.666100e-01
14593.5  4.632512e-01
14603.5  4.635863e-01
14613.5  4.648429e-01
14623.5  4.652346e-01
14633.5  4.647548e-01
14643.5  4.688457e-01
14653.5  4.647946e-01
14663.5  4.620416e-01
14673.5  4.671630e-01
14683.5  4.563073e-01
14693.5  4.526899e-01
14703.5  4.462740e-01
14713.5  4.362200e-01
14723.5  4.217050e-01
14733.5  4.013204e-01
14743.5  3.795529e-01
14753.5  3.501150e-01
14763.5  3.267945e-01
14773.5  2.916497e-01
14783.5  2.594295e-01
14793.5  2.247903e-01
14803.5  1.949238e-01
14813.5  1.678796e-01
14823.5  1.415863e-01
14833.5  1.216429e-01
14843.5  1.050196e-01
14853.5  8.914047e-02
14863.5  7.615347e-02
14873.5  6.383259e-02
14883.5  5.858819e-02
14893.5  4.822561e-02
14903.5  4.243883e-02
14913.5  3.685333e-02
14923.5  3.240978e-02
14933.5  2.893671e-02
14943.5  2.506472e-02
14953.5  2.329343e-02
14963.5  2.085973e-02
14973.5  1.881269e-02
14983.5  1.656229e-02
14993.5  1.476262e-02
15003.5  1.252204e-02
15013.5  1.036693e-02
15023.5  8.645327e-03
15033.5  7.151875e-03
15043.5  5.962341e-03
15053.5  4.976103e-03
15063.5  4.135623e-03
15073.5  3.551589e-03
15083.5  3.005664e-03
15093.5  2.582417e-03
15103.5  2.195810e-03
15113.5  1.879840e-03
15123.5  1.624997e-03
15133.5  1.400096e-03
15143.5  1.252106e-03
15153.5  1.071951e-03
15163.5  9.452912e-04
15173.5  8.259205e-04
15183.5  7.358760e-04
15193.5  6.478200e-04
15203.5  5.687157e-04
15213.5  5.152502e-04
15223.5  4.522688e-04
15233.5  4.141436e-04
15243.5  3.693547e-04
15253.5  3.268418e-04
15263.5  2.972896e-04
15273.5  2.672604e-04
15283.5  2.441787e-04
15293.5  2.173006e-04
15303.5  1.972399e-04
15313.5  1.807534e-04
15323.5  1.622778e-04
15333.5  1.482937e-04
15343.5  1.351058e-04
15353.5  1.211652e-04
15363.5  1.123661e-04
15373.5  1.026740e-04
15383.5  9.407340e-05
15393.5  8.514327e-05
15403.5  7.848953e-05
15413.5  7.039470e-05
15423.5  6.443991e-05
15433.5  6.043555e-05
15443.5  5.540450e-05
15453.5  4.951422e-05
15463.5  4.577422e-05
15473.5  4.374718e-05
15483.5  3.775395e-05
15493.5  3.605078e-05
15503.5  3.310879e-05
15513.5  0.000000e+00
15523.5  0.000000e+00
