# from http://www.stsci.edu/jwst/instruments/nircam/instrumentdesign/filters
# Retrieved March, 2023, dated Nov, 2022 (post-flight)
# Uses modA or modB  filters+DBS+QE+OTE (nrc_plus_ote)
# Units of transmission are PCE (photon to electron conversion efficiency)
# 
5481.5  0.000000e+00
5491.5  0.000000e+00
5501.5  9.122833e-10
5511.5  1.362629e-09
5521.5  1.750419e-09
5531.5  2.238298e-09
5541.5  2.260977e-09
5551.5  2.486432e-09
5561.5  2.688119e-09
5571.5  2.720680e-09
5581.5  1.939836e-09
5591.5  1.017530e-09
5601.5  1.121813e-09
5611.5  1.688796e-09
5621.5  1.767594e-09
5631.5  1.782763e-09
5641.5  2.175063e-09
5651.5  2.897282e-09
5661.5  4.385082e-09
5671.5  5.119352e-09
5681.5  6.988482e-09
5691.5  6.932798e-09
5701.5  8.193947e-09
5711.5  8.308168e-09
5721.5  9.640719e-09
5731.5  9.062148e-09
5741.5  7.456514e-09
5751.5  6.616740e-09
5761.5  7.460023e-09
5771.5  8.900561e-09
5781.5  9.012037e-09
5791.5  9.385803e-09
5801.5  1.147315e-08
5811.5  1.489015e-08
5821.5  1.709646e-08
5831.5  1.945246e-08
5841.5  1.905339e-08
5851.5  1.844296e-08
5861.5  1.752089e-08
5871.5  2.286302e-08
5881.5  2.938173e-08
5891.5  3.311160e-08
5901.5  3.704068e-08
5911.5  4.218946e-08
5921.5  4.928435e-08
5931.5  5.464122e-08
5941.5  7.010755e-08
5951.5  8.441531e-08
5961.5  1.069264e-07
5971.5  1.945212e-07
5981.5  5.348895e-07
5991.5  2.017669e-06
6001.5  6.877272e-06
6011.5  2.594186e-05
6021.5  1.369673e-04
6031.5  5.716391e-04
6041.5  2.259796e-03
6051.5  7.508794e-03
6061.5  1.806422e-02
6071.5  3.388344e-02
6081.5  5.181699e-02
6091.5  6.755950e-02
6101.5  7.854478e-02
6111.5  8.479207e-02
6121.5  8.908390e-02
6131.5  9.357809e-02
6141.5  9.934006e-02
6151.5  1.061412e-01
6161.5  1.129807e-01
6171.5  1.194392e-01
6181.5  1.249978e-01
6191.5  1.296531e-01
6201.5  1.338112e-01
6211.5  1.366456e-01
6221.5  1.386189e-01
6231.5  1.396634e-01
6241.5  1.411923e-01
6251.5  1.429530e-01
6261.5  1.442096e-01
6271.5  1.454330e-01
6281.5  1.464188e-01
6291.5  1.471176e-01
6301.5  1.476906e-01
6311.5  1.483019e-01
6321.5  1.497500e-01
6331.5  1.521190e-01
6341.5  1.550496e-01
6351.5  1.580295e-01
6361.5  1.603696e-01
6371.5  1.620662e-01
6381.5  1.632616e-01
6391.5  1.643314e-01
6401.5  1.657989e-01
6411.5  1.677830e-01
6421.5  1.697750e-01
6431.5  1.714258e-01
6441.5  1.722904e-01
6451.5  1.727287e-01
6461.5  1.733119e-01
6471.5  1.743873e-01
6481.5  1.762254e-01
6491.5  1.784820e-01
6501.5  1.806713e-01
6511.5  1.827199e-01
6521.5  1.841228e-01
6531.5  1.845286e-01
6541.5  1.841537e-01
6551.5  1.832886e-01
6561.5  1.822693e-01
6571.5  1.812749e-01
6581.5  1.805214e-01
6591.5  1.801954e-01
6601.5  1.803374e-01
6611.5  1.812211e-01
6621.5  1.830584e-01
6631.5  1.856983e-01
6641.5  1.885106e-01
6651.5  1.909753e-01
6661.5  1.924862e-01
6671.5  1.929888e-01
6681.5  1.930228e-01
6691.5  1.933037e-01
6701.5  1.938800e-01
6711.5  1.945189e-01
6721.5  1.950645e-01
6731.5  1.958460e-01
6741.5  1.966321e-01
6751.5  1.973109e-01
6761.5  1.979228e-01
6771.5  1.986360e-01
6781.5  1.998299e-01
6791.5  2.014875e-01
6801.5  2.032966e-01
6811.5  2.047159e-01
6821.5  2.055337e-01
6831.5  2.059693e-01
6841.5  2.065621e-01
6851.5  2.073441e-01
6861.5  2.084396e-01
6871.5  2.097677e-01
6881.5  2.116034e-01
6891.5  2.136929e-01
6901.5  2.152738e-01
6911.5  2.155327e-01
6921.5  2.143837e-01
6931.5  2.117891e-01
6941.5  2.082314e-01
6951.5  2.048223e-01
6961.5  2.025344e-01
6971.5  2.023275e-01
6981.5  2.042382e-01
6991.5  2.079482e-01
7001.5  2.124688e-01
7011.5  2.170315e-01
7021.5  2.206287e-01
7031.5  2.230020e-01
7041.5  2.241624e-01
7051.5  2.247539e-01
7061.5  2.254457e-01
7071.5  2.267760e-01
7081.5  2.287051e-01
7091.5  2.306749e-01
7101.5  2.312918e-01
7111.5  2.300990e-01
7121.5  2.275402e-01
7131.5  2.251214e-01
7141.5  2.244602e-01
7151.5  2.253406e-01
7161.5  2.265497e-01
7171.5  2.259423e-01
7181.5  2.229205e-01
7191.5  2.186573e-01
7201.5  2.152306e-01
7211.5  2.147551e-01
7221.5  2.181298e-01
7231.5  2.245782e-01
7241.5  2.323211e-01
7251.5  2.397057e-01
7261.5  2.460550e-01
7271.5  2.507460e-01
7281.5  2.538979e-01
7291.5  2.558042e-01
7301.5  2.565852e-01
7311.5  2.556359e-01
7321.5  2.529528e-01
7331.5  2.492651e-01
7341.5  2.452617e-01
7351.5  2.416899e-01
7361.5  2.395137e-01
7371.5  2.391609e-01
7381.5  2.403785e-01
7391.5  2.419832e-01
7401.5  2.430576e-01
7411.5  2.436209e-01
7421.5  2.447471e-01
7431.5  2.477543e-01
7441.5  2.525915e-01
7451.5  2.583977e-01
7461.5  2.636880e-01
7471.5  2.680406e-01
7481.5  2.710239e-01
7491.5  2.734470e-01
7501.5  2.751228e-01
7511.5  2.760161e-01
7521.5  2.750429e-01
7531.5  2.718366e-01
7541.5  2.668144e-01
7551.5  2.614718e-01
7561.5  2.576074e-01
7571.5  2.561944e-01
7581.5  2.567008e-01
7591.5  2.576890e-01
7601.5  2.581775e-01
7611.5  2.585027e-01
7621.5  2.598524e-01
7631.5  2.633416e-01
7641.5  2.690573e-01
7651.5  2.760970e-01
7661.5  2.823569e-01
7671.5  2.869346e-01
7681.5  2.888420e-01
7691.5  2.889790e-01
7701.5  2.875791e-01
7711.5  2.858043e-01
7721.5  2.835519e-01
7731.5  2.809397e-01
7741.5  2.781721e-01
7751.5  2.757654e-01
7761.5  2.737233e-01
7771.5  2.695815e-01
7781.5  2.613100e-01
7791.5  2.463271e-01
7801.5  2.244685e-01
7811.5  1.958179e-01
7821.5  1.628496e-01
7831.5  1.286300e-01
7841.5  9.675184e-02
7851.5  6.946995e-02
7861.5  4.792699e-02
7871.5  3.210182e-02
7881.5  2.133596e-02
7891.5  1.428643e-02
7901.5  9.898680e-03
7911.5  6.928288e-03
7921.5  4.949134e-03
7931.5  3.462682e-03
7941.5  2.449719e-03
7951.5  1.761999e-03
7961.5  1.277799e-03
7971.5  9.298037e-04
7981.5  6.771637e-04
7991.5  4.978261e-04
8001.5  3.695817e-04
8011.5  2.752643e-04
8021.5  2.058956e-04
8031.5  1.552753e-04
8041.5  1.190296e-04
8051.5  9.280379e-05
8061.5  7.378319e-05
8071.5  5.977264e-05
8081.5  4.919533e-05
8091.5  4.090798e-05
8101.5  3.419307e-05
8111.5  2.874616e-05
8121.5  2.482906e-05
8131.5  2.203872e-05
8141.5  2.003752e-05
8151.5  1.831355e-05
8161.5  1.699477e-05
8171.5  1.583138e-05
8181.5  1.497363e-05
8191.5  1.409622e-05
8201.5  1.339940e-05
8211.5  1.270692e-05
8221.5  1.231140e-05
8231.5  1.202636e-05
8241.5  1.193198e-05
8251.5  1.173944e-05
8261.5  1.160004e-05
8271.5  1.140475e-05
8281.5  1.132729e-05
8291.5  1.111585e-05
8301.5  1.074776e-05
8311.5  1.032720e-05
8321.5  1.019710e-05
8331.5  1.042875e-05
8341.5  1.066112e-05
8351.5  1.047714e-05
8361.5  9.714350e-06
8371.5  8.711705e-06
8381.5  7.806543e-06
8391.5  7.484042e-06
8401.5  7.783750e-06
8411.5  8.495150e-06
8421.5  9.141243e-06
8431.5  9.294986e-06
8441.5  9.130397e-06
8451.5  8.450740e-06
8461.5  7.727404e-06
8471.5  6.778506e-06
8481.5  6.089720e-06
8491.5  5.604360e-06
8501.5  0.000000e+00
8511.5  0.000000e+00
