# from http://www.stsci.edu/jwst/instruments/nircam/instrumentdesign/filters
# Retrieved March, 2023, dated Nov, 2022 (post-flight)
# Uses modA or modB  filters+DBS+QE+OTE (nrc_plus_ote)
# Units of transmission are PCE (photon to electron conversion efficiency)
# 
44969.0  0.000000e+00
44982.5  0.000000e+00
44996.0  1.693429e-05
45009.5  1.983527e-05
45023.0  1.355071e-05
45036.5  1.815085e-05
45050.1  2.274550e-05
45063.6  2.386509e-05
45077.1  2.265171e-05
45090.6  2.827207e-05
45104.1  4.189524e-05
45117.6  4.139973e-05
45131.1  3.889937e-05
45144.6  4.099659e-05
45158.2  6.075320e-05
45171.7  6.853564e-05
45185.2  6.990594e-05
45198.7  7.321112e-05
45212.2  9.477278e-05
45225.7  1.186558e-04
45239.2  1.299957e-04
45252.7  1.468100e-04
45266.3  1.717331e-04
45279.8  2.077023e-04
45293.3  2.230378e-04
45306.8  2.477023e-04
45320.3  2.839507e-04
45333.8  3.333621e-04
45347.3  3.725801e-04
45360.8  4.050826e-04
45374.4  4.554711e-04
45387.9  5.156900e-04
45401.4  5.810220e-04
45414.9  6.317311e-04
45428.4  6.981606e-04
45441.9  7.751742e-04
45455.4  8.560511e-04
45468.9  9.288755e-04
45482.5  1.008926e-03
45496.0  1.111512e-03
45509.5  1.212517e-03
45523.0  1.314237e-03
45536.5  1.412541e-03
45550.0  1.541297e-03
45563.5  1.677860e-03
45577.0  1.813054e-03
45590.5  1.946247e-03
45604.1  2.098187e-03
45617.6  2.278096e-03
45631.1  2.448104e-03
45644.6  2.624832e-03
45658.1  2.809291e-03
45671.6  3.031574e-03
45685.1  3.256683e-03
45698.6  3.479805e-03
45712.2  3.717896e-03
45725.7  3.986680e-03
45739.2  4.291287e-03
45752.7  4.586625e-03
45766.2  4.903706e-03
45779.7  5.244784e-03
45793.2  5.633287e-03
45806.7  6.033374e-03
45820.3  6.445175e-03
45833.8  6.898914e-03
45847.3  7.393119e-03
45860.8  7.931062e-03
45874.3  8.471581e-03
45887.8  9.060898e-03
45901.3  9.703686e-03
45914.8  1.040654e-02
45928.4  1.114221e-02
45941.9  1.191117e-02
45955.4  1.276346e-02
45968.9  1.368089e-02
45982.4  1.466894e-02
45995.9  1.569707e-02
46009.4  1.681408e-02
46022.9  1.803110e-02
46036.5  1.933864e-02
46050.0  2.072855e-02
46063.5  2.220184e-02
46077.0  2.382033e-02
46090.5  2.555498e-02
46104.0  2.741098e-02
46117.5  2.937873e-02
46131.0  3.150023e-02
46144.6  3.380413e-02
46158.1  3.626255e-02
46171.6  3.888928e-02
46185.1  4.169646e-02
46198.6  4.474419e-02
46212.1  4.800964e-02
46225.6  5.149182e-02
46239.1  5.520856e-02
46252.7  5.918956e-02
46266.2  6.348285e-02
46279.7  6.804067e-02
46293.2  7.289217e-02
46306.7  7.806312e-02
46320.2  8.359452e-02
46333.7  8.950941e-02
46347.2  9.573889e-02
46360.8  1.023373e-01
46374.3  1.093567e-01
46387.8  1.167954e-01
46401.3  1.246223e-01
46414.8  1.328892e-01
46428.3  1.415230e-01
46441.8  1.506036e-01
46455.3  1.601646e-01
46468.8  1.700025e-01
46482.4  1.802629e-01
46495.9  1.909444e-01
46509.4  2.019128e-01
46522.9  2.132352e-01
46536.4  2.247798e-01
46549.9  2.365027e-01
46563.4  2.485052e-01
46576.9  2.605887e-01
46590.5  2.726518e-01
46604.0  2.849061e-01
46617.5  2.969221e-01
46631.0  3.088712e-01
46644.5  3.208996e-01
46658.0  3.322759e-01
46671.5  3.435233e-01
46685.0  3.545925e-01
46698.6  3.649927e-01
46712.1  3.750950e-01
46725.6  3.846929e-01
46739.1  3.936450e-01
46752.6  4.022273e-01
46766.1  4.101437e-01
46779.6  4.174456e-01
46793.1  4.243034e-01
46806.7  4.304076e-01
46820.2  4.360030e-01
46833.7  4.412678e-01
46847.2  4.456781e-01
46860.7  4.497194e-01
46874.2  4.534033e-01
46887.7  4.565240e-01
46901.2  4.592994e-01
46914.8  4.616726e-01
46928.3  4.636938e-01
46941.8  4.654321e-01
46955.3  4.668225e-01
46968.8  4.679936e-01
46982.3  4.689125e-01
46995.8  4.696062e-01
47009.3  4.701794e-01
47022.9  4.705171e-01
47036.4  4.707344e-01
47049.9  4.708776e-01
47063.4  4.708524e-01
47076.9  4.708074e-01
47090.4  4.706501e-01
47103.9  4.704697e-01
47117.4  4.702710e-01
47131.0  4.699964e-01
47144.5  4.697338e-01
47158.0  4.694552e-01
47171.5  4.690980e-01
47185.0  4.687879e-01
47198.5  4.684679e-01
47212.0  4.680617e-01
47225.5  4.676833e-01
47239.1  4.672871e-01
47252.6  4.668282e-01
47266.1  4.664032e-01
47279.6  4.659592e-01
47293.1  4.654589e-01
47306.6  4.649912e-01
47320.1  4.644748e-01
47333.6  4.639768e-01
47347.1  4.634650e-01
47360.7  4.628953e-01
47374.2  4.623458e-01
47387.7  4.617770e-01
47401.2  4.611371e-01
47414.7  4.605015e-01
47428.2  4.598173e-01
47441.7  4.590808e-01
47455.2  4.583435e-01
47468.8  4.575444e-01
47482.3  4.567128e-01
47495.8  4.558695e-01
47509.3  4.550040e-01
47522.8  4.541152e-01
47536.3  4.532059e-01
47549.8  4.522855e-01
47563.3  4.513505e-01
47576.9  4.504177e-01
47590.4  4.494822e-01
47603.9  4.485428e-01
47617.4  4.476076e-01
47630.9  4.466637e-01
47644.4  4.457374e-01
47657.9  4.448317e-01
47671.4  4.439447e-01
47685.0  4.430755e-01
47698.5  4.422146e-01
47712.0  4.413771e-01
47725.5  4.405632e-01
47739.0  4.397639e-01
47752.5  4.390183e-01
47766.0  4.382950e-01
47779.5  4.376163e-01
47793.1  4.369808e-01
47806.6  4.363593e-01
47820.1  4.358087e-01
47833.6  4.352783e-01
47847.1  4.347864e-01
47860.6  4.343453e-01
47874.1  4.339090e-01
47887.6  4.335209e-01
47901.2  4.331735e-01
47914.7  4.328309e-01
47928.2  4.324953e-01
47941.7  4.321870e-01
47955.2  4.318742e-01
47968.7  4.315708e-01
47982.2  4.312977e-01
47995.7  4.309892e-01
48009.3  4.306840e-01
48022.8  4.304146e-01
48036.3  4.301265e-01
48049.8  4.298399e-01
48063.3  4.295572e-01
48076.8  4.292389e-01
48090.3  4.289413e-01
48103.8  4.285896e-01
48117.4  4.282237e-01
48130.9  4.278364e-01
48144.4  4.274006e-01
48157.9  4.269436e-01
48171.4  4.264773e-01
48184.9  4.259543e-01
48198.4  4.253637e-01
48211.9  4.247929e-01
48225.5  4.241665e-01
48239.0  4.235051e-01
48252.5  4.228631e-01
48266.0  4.221383e-01
48279.5  4.214073e-01
48293.0  4.207070e-01
48306.5  4.199503e-01
48320.0  4.192202e-01
48333.5  4.184258e-01
48347.1  4.176269e-01
48360.6  4.168604e-01
48374.1  4.160548e-01
48387.6  4.152450e-01
48401.1  4.144501e-01
48414.6  4.136183e-01
48428.1  4.127858e-01
48441.6  4.119551e-01
48455.2  4.110757e-01
48468.7  4.101697e-01
48482.2  4.092977e-01
48495.7  4.083914e-01
48509.2  4.074596e-01
48522.7  4.065518e-01
48536.2  4.055952e-01
48549.7  4.046346e-01
48563.3  4.036995e-01
48576.8  4.026960e-01
48590.3  4.017066e-01
48603.8  4.006563e-01
48617.3  3.995882e-01
48630.8  3.985154e-01
48644.3  3.973513e-01
48657.8  3.961556e-01
48671.4  3.949354e-01
48684.9  3.936750e-01
48698.4  3.923782e-01
48711.9  3.910606e-01
48725.4  3.896902e-01
48738.9  3.883047e-01
48752.4  3.869348e-01
48765.9  3.855272e-01
48779.5  3.841033e-01
48793.0  3.825617e-01
48806.5  3.810278e-01
48820.0  3.795050e-01
48833.5  3.779025e-01
48847.0  3.764157e-01
48860.5  3.748436e-01
48874.0  3.734379e-01
48887.6  3.720613e-01
48901.1  3.706447e-01
48914.6  3.693593e-01
48928.1  3.681373e-01
48941.6  3.668955e-01
48955.1  3.658251e-01
48968.6  3.648491e-01
48982.1  3.637977e-01
48995.7  3.629604e-01
49009.2  3.621910e-01
49022.7  3.613972e-01
49036.2  3.607592e-01
49049.7  3.601366e-01
49063.2  3.594394e-01
49076.7  3.588520e-01
49090.2  3.581456e-01
49103.8  3.574598e-01
49117.3  3.567029e-01
49130.8  3.556148e-01
49144.3  3.545550e-01
49157.8  3.531571e-01
49171.3  3.513851e-01
49184.8  3.493571e-01
49198.3  3.468356e-01
49211.8  3.439752e-01
49225.4  3.404024e-01
49238.9  3.365660e-01
49252.4  3.317647e-01
49265.9  3.265514e-01
49279.4  3.208104e-01
49292.9  3.140760e-01
49306.4  3.072509e-01
49319.9  2.991819e-01
49333.5  2.908315e-01
49347.0  2.818790e-01
49360.5  2.723945e-01
49374.0  2.627655e-01
49387.5  2.524553e-01
49401.0  2.421576e-01
49414.5  2.314185e-01
49428.0  2.208680e-01
49441.6  2.101490e-01
49455.1  1.995730e-01
49468.6  1.892218e-01
49482.1  1.789101e-01
49495.6  1.691150e-01
49509.1  1.595255e-01
49522.6  1.503163e-01
49536.1  1.414984e-01
49549.7  1.331263e-01
49563.2  1.251536e-01
49576.7  1.176563e-01
49590.2  1.105522e-01
49603.7  1.038671e-01
49617.2  9.760644e-02
49630.7  9.172360e-02
49644.2  8.626498e-02
49657.8  8.115669e-02
49671.3  7.634323e-02
49684.8  7.185555e-02
49698.3  6.772375e-02
49711.8  6.382376e-02
49725.3  6.021954e-02
49738.8  5.683254e-02
49752.3  5.362614e-02
49765.9  5.067479e-02
49779.4  4.790286e-02
49792.9  4.528611e-02
49806.4  4.282874e-02
49819.9  4.049744e-02
49833.4  3.828954e-02
49846.9  3.623162e-02
49860.4  3.424972e-02
49874.0  3.238086e-02
49887.5  3.057005e-02
49901.0  2.884247e-02
49914.5  2.721287e-02
49928.0  2.565462e-02
49941.5  2.413782e-02
49955.0  2.268278e-02
49968.5  2.128845e-02
49982.1  1.994614e-02
49995.6  1.869014e-02
50009.1  1.744438e-02
50022.6  1.626621e-02
50036.1  1.512848e-02
50049.6  1.405932e-02
50063.1  1.304805e-02
50076.6  1.207406e-02
50090.1  1.115062e-02
50103.7  1.026999e-02
50117.2  9.453605e-03
50130.7  8.691262e-03
50144.2  7.982812e-03
50157.7  7.304660e-03
50171.2  6.675012e-03
50184.7  6.094579e-03
50198.2  5.567975e-03
50211.8  5.086803e-03
50225.3  4.629682e-03
50238.8  4.211598e-03
50252.3  3.833781e-03
50265.8  3.493394e-03
50279.3  3.188907e-03
50292.8  2.900348e-03
50306.3  2.628793e-03
50319.9  2.389879e-03
50333.4  2.175357e-03
50346.9  1.989095e-03
50360.4  1.818664e-03
50373.9  1.646795e-03
50387.4  1.494019e-03
50400.9  1.363302e-03
50414.4  1.248031e-03
50428.0  1.147021e-03
50441.5  1.047227e-03
50455.0  9.525731e-04
50468.5  8.775503e-04
50482.0  8.109081e-04
50495.5  7.490897e-04
50509.0  6.899019e-04
50522.5  6.246274e-04
50536.1  5.711315e-04
50549.6  5.323032e-04
50563.1  4.952592e-04
50576.6  4.603489e-04
50590.1  4.203265e-04
50603.6  3.808287e-04
50617.1  3.571623e-04
50630.6  3.367077e-04
50644.2  3.146210e-04
50657.7  2.926919e-04
50671.2  2.673885e-04
50684.7  2.488146e-04
50698.2  2.390418e-04
50711.7  2.248710e-04
50725.2  2.077180e-04
50738.7  1.891583e-04
50752.3  1.711686e-04
50765.8  1.660357e-04
50779.3  1.627976e-04
50792.8  1.509039e-04
50806.3  1.396773e-04
50819.8  1.281896e-04
50833.3  1.213299e-04
50846.8  1.220783e-04
50860.4  1.179276e-04
50873.9  1.091799e-04
50887.4  1.018914e-04
50900.9  9.551242e-05
50914.4  9.567020e-05
50927.9  9.749986e-05
50941.4  8.835671e-05
50954.9  7.980009e-05
50968.4  7.395105e-05
50982.0  6.983100e-05
50995.5  6.993401e-05
51009.0  0.000000e+00
51022.5  0.000000e+00
